July 5, 2024   18:49:50
Amperometric i-t Curve
File: 13
Data Source:  Experiment
Instrument Model:  CHI760E
Header: 
Note: 

Init E (V) = 0.2
Sample Interval (s) = 0.02
Run Time (sec) = 4e+3
Quiet Time (sec) = 0
Sensitivity (A/V) = 1e-5

Results:

Channel 1:

Time/sec, Current/A

2.000e-2, 8.135e-7
4.000e-2, 8.164e-7
6.000e-2, 8.238e-7
8.000e-2, 8.247e-7
1.000e-1, 8.159e-7
1.200e-1, 7.913e-7
1.400e-1, 7.917e-7
1.600e-1, 7.927e-7
1.800e-1, 7.789e-7
2.000e-1, 7.785e-7
2.200e-1, 8.039e-7
2.400e-1, 8.248e-7
2.600e-1, 8.259e-7
2.800e-1, 8.316e-7
3.000e-1, 7.940e-7
3.200e-1, 7.988e-7
3.400e-1, 7.860e-7
3.600e-1, 7.770e-7
3.800e-1, 7.843e-7
4.000e-1, 7.847e-7
4.200e-1, 7.949e-7
4.400e-1, 8.186e-7
4.600e-1, 8.307e-7
4.800e-1, 8.297e-7
5.000e-1, 8.491e-7
5.200e-1, 8.383e-7
5.400e-1, 8.435e-7
5.600e-1, 8.501e-7
5.800e-1, 8.511e-7
6.000e-1, 8.564e-7
6.200e-1, 8.532e-7
6.400e-1, 8.482e-7
6.600e-1, 9.003e-7
6.800e-1, 9.124e-7
7.000e-1, 1.316e-6
7.200e-1, 1.635e-6
7.400e-1, 1.644e-6
7.600e-1, 1.764e-6
7.800e-1, 1.799e-6
8.000e-1, 1.797e-6
8.200e-1, 1.785e-6
8.400e-1, 1.806e-6
8.600e-1, 1.917e-6
8.800e-1, 1.946e-6
9.000e-1, 1.961e-6
9.200e-1, 2.098e-6
9.400e-1, 2.042e-6
9.600e-1, 1.904e-6
9.800e-1, 1.874e-6
1.000e+0, 1.633e-6
1.020e+0, 1.586e-6
1.040e+0, 1.592e-6
1.060e+0, 1.637e-6
1.080e+0, 1.712e-6
1.100e+0, 1.718e-6
1.120e+0, 1.717e-6
1.140e+0, 1.706e-6
1.160e+0, 1.714e-6
1.180e+0, 1.737e-6
1.200e+0, 1.735e-6
1.220e+0, 1.852e-6
1.240e+0, 1.780e-6
1.260e+0, 1.778e-6
1.280e+0, 1.788e-6
1.300e+0, 1.798e-6
1.320e+0, 1.912e-6
1.340e+0, 1.943e-6
1.360e+0, 1.980e-6
1.380e+0, 2.019e-6
1.400e+0, 2.137e-6
1.420e+0, 2.136e-6
1.440e+0, 2.100e-6
1.460e+0, 2.210e-6
1.480e+0, 2.186e-6
1.500e+0, 2.100e-6
1.520e+0, 2.078e-6
1.540e+0, 2.057e-6
1.560e+0, 2.063e-6
1.580e+0, 2.070e-6
1.600e+0, 2.089e-6
1.620e+0, 2.097e-6
1.640e+0, 2.140e-6
1.660e+0, 2.018e-6
1.680e+0, 1.951e-6
1.700e+0, 1.933e-6
1.720e+0, 1.949e-6
1.740e+0, 1.963e-6
1.760e+0, 1.973e-6
1.780e+0, 1.975e-6
1.800e+0, 1.982e-6
1.820e+0, 1.979e-6
1.840e+0, 2.111e-6
1.860e+0, 2.239e-6
1.880e+0, 2.253e-6
1.900e+0, 2.269e-6
1.920e+0, 2.274e-6
1.940e+0, 2.246e-6
1.960e+0, 2.203e-6
1.980e+0, 2.155e-6
2.000e+0, 2.166e-6
2.020e+0, 2.214e-6
2.040e+0, 2.219e-6
2.060e+0, 2.179e-6
2.080e+0, 2.196e-6
2.100e+0, 2.206e-6
2.120e+0, 2.205e-6
2.140e+0, 2.205e-6
2.160e+0, 2.212e-6
2.180e+0, 2.241e-6
2.200e+0, 2.237e-6
2.220e+0, 2.252e-6
2.240e+0, 2.228e-6
2.260e+0, 2.213e-6
2.280e+0, 2.255e-6
2.300e+0, 2.222e-6
2.320e+0, 2.252e-6
2.340e+0, 2.164e-6
2.360e+0, 2.074e-6
2.380e+0, 2.080e-6
2.400e+0, 2.061e-6
2.420e+0, 2.060e-6
2.440e+0, 2.121e-6
2.460e+0, 2.168e-6
2.480e+0, 2.206e-6
2.500e+0, 2.208e-6
2.520e+0, 2.210e-6
2.540e+0, 2.228e-6
2.560e+0, 2.228e-6
2.580e+0, 2.235e-6
2.600e+0, 2.244e-6
2.620e+0, 2.253e-6
2.640e+0, 2.252e-6
2.660e+0, 2.253e-6
2.680e+0, 2.244e-6
2.700e+0, 2.246e-6
2.720e+0, 2.248e-6
2.740e+0, 2.246e-6
2.760e+0, 2.259e-6
2.780e+0, 2.257e-6
2.800e+0, 2.241e-6
2.820e+0, 2.183e-6
2.840e+0, 2.228e-6
2.860e+0, 2.237e-6
2.880e+0, 2.242e-6
2.900e+0, 2.234e-6
2.920e+0, 2.218e-6
2.940e+0, 2.216e-6
2.960e+0, 2.241e-6
2.980e+0, 2.237e-6
3.000e+0, 2.253e-6
3.020e+0, 2.279e-6
3.040e+0, 2.143e-6
3.060e+0, 2.062e-6
3.080e+0, 2.058e-6
3.100e+0, 2.052e-6
3.120e+0, 2.057e-6
3.140e+0, 2.111e-6
3.160e+0, 2.181e-6
3.180e+0, 2.190e-6
3.200e+0, 2.216e-6
3.220e+0, 2.211e-6
3.240e+0, 2.220e-6
3.260e+0, 2.219e-6
3.280e+0, 2.238e-6
3.300e+0, 2.232e-6
3.320e+0, 2.244e-6
3.340e+0, 2.263e-6
3.360e+0, 2.280e-6
3.380e+0, 2.291e-6
3.400e+0, 2.302e-6
3.420e+0, 2.291e-6
3.440e+0, 2.283e-6
3.460e+0, 2.260e-6
3.480e+0, 2.264e-6
3.500e+0, 2.267e-6
3.520e+0, 2.269e-6
3.540e+0, 2.292e-6
3.560e+0, 2.304e-6
3.580e+0, 2.251e-6
3.600e+0, 2.249e-6
3.620e+0, 2.260e-6
3.640e+0, 2.291e-6
3.660e+0, 2.290e-6
3.680e+0, 2.263e-6
3.700e+0, 2.236e-6
3.720e+0, 2.230e-6
3.740e+0, 2.222e-6
3.760e+0, 2.203e-6
3.780e+0, 2.126e-6
3.800e+0, 2.110e-6
3.820e+0, 2.113e-6
3.840e+0, 2.161e-6
3.860e+0, 2.219e-6
3.880e+0, 2.227e-6
3.900e+0, 2.234e-6
3.920e+0, 2.231e-6
3.940e+0, 2.235e-6
3.960e+0, 2.245e-6
3.980e+0, 2.247e-6
4.000e+0, 2.226e-6
4.020e+0, 2.230e-6
4.040e+0, 2.238e-6
4.060e+0, 2.237e-6
4.080e+0, 2.242e-6
4.100e+0, 2.245e-6
4.120e+0, 2.251e-6
4.140e+0, 2.266e-6
4.160e+0, 2.310e-6
4.180e+0, 2.309e-6
4.200e+0, 2.315e-6
4.220e+0, 2.302e-6
4.240e+0, 2.264e-6
4.260e+0, 2.262e-6
4.280e+0, 2.260e-6
4.300e+0, 2.253e-6
4.320e+0, 2.230e-6
4.340e+0, 2.226e-6
4.360e+0, 2.221e-6
4.380e+0, 2.216e-6
4.400e+0, 2.259e-6
4.420e+0, 2.281e-6
4.440e+0, 2.308e-6
4.460e+0, 2.280e-6
4.480e+0, 2.131e-6
4.500e+0, 2.138e-6
4.520e+0, 2.141e-6
4.540e+0, 2.164e-6
4.560e+0, 2.265e-6
4.580e+0, 2.288e-6
4.600e+0, 2.254e-6
4.620e+0, 2.267e-6
4.640e+0, 2.292e-6
4.660e+0, 2.349e-6
4.680e+0, 2.356e-6
4.700e+0, 2.357e-6
4.720e+0, 2.354e-6
4.740e+0, 2.360e-6
4.760e+0, 2.350e-6
4.780e+0, 2.354e-6
4.800e+0, 2.336e-6
4.820e+0, 2.328e-6
4.840e+0, 2.347e-6
4.860e+0, 2.277e-6
4.880e+0, 2.287e-6
4.900e+0, 2.306e-6
4.920e+0, 2.301e-6
4.940e+0, 2.295e-6
4.960e+0, 2.290e-6
4.980e+0, 2.291e-6
5.000e+0, 2.290e-6
5.020e+0, 2.293e-6
5.040e+0, 2.307e-6
5.060e+0, 2.304e-6
5.080e+0, 2.280e-6
5.100e+0, 2.202e-6
5.120e+0, 2.227e-6
5.140e+0, 2.396e-6
5.160e+0, 2.429e-6
5.180e+0, 2.252e-6
5.200e+0, 2.222e-6
5.220e+0, 2.268e-6
5.240e+0, 2.290e-6
5.260e+0, 2.294e-6
5.280e+0, 2.302e-6
5.300e+0, 2.297e-6
5.320e+0, 2.276e-6
5.340e+0, 2.293e-6
5.360e+0, 2.326e-6
5.380e+0, 2.312e-6
5.400e+0, 2.309e-6
5.420e+0, 2.318e-6
5.440e+0, 2.332e-6
5.460e+0, 2.335e-6
5.480e+0, 2.294e-6
5.500e+0, 2.245e-6
5.520e+0, 2.301e-6
5.540e+0, 2.348e-6
5.560e+0, 2.421e-6
5.580e+0, 2.370e-6
5.600e+0, 2.377e-6
5.620e+0, 2.414e-6
5.640e+0, 2.540e-6
5.660e+0, 2.486e-6
5.680e+0, 2.408e-6
5.700e+0, 2.413e-6
5.720e+0, 2.431e-6
5.740e+0, 2.492e-6
5.760e+0, 2.661e-6
5.780e+0, 2.565e-6
5.800e+0, 2.498e-6
5.820e+0, 2.492e-6
5.840e+0, 2.474e-6
5.860e+0, 2.321e-6
5.880e+0, 2.243e-6
5.900e+0, 2.220e-6
5.920e+0, 2.240e-6
5.940e+0, 2.253e-6
5.960e+0, 2.230e-6
5.980e+0, 2.247e-6
6.000e+0, 2.267e-6
6.020e+0, 2.261e-6
6.040e+0, 2.277e-6
6.060e+0, 2.296e-6
6.080e+0, 2.304e-6
6.100e+0, 2.288e-6
6.120e+0, 2.290e-6
6.140e+0, 2.296e-6
6.160e+0, 2.319e-6
6.180e+0, 2.367e-6
6.200e+0, 2.395e-6
6.220e+0, 2.441e-6
6.240e+0, 2.430e-6
6.260e+0, 2.435e-6
6.280e+0, 2.447e-6
6.300e+0, 2.450e-6
6.320e+0, 2.459e-6
6.340e+0, 2.478e-6
6.360e+0, 2.495e-6
6.380e+0, 2.525e-6
6.400e+0, 2.515e-6
6.420e+0, 2.500e-6
6.440e+0, 2.525e-6
6.460e+0, 2.603e-6
6.480e+0, 2.557e-6
6.500e+0, 2.510e-6
6.520e+0, 2.389e-6
6.540e+0, 2.323e-6
6.560e+0, 2.355e-6
6.580e+0, 2.291e-6
6.600e+0, 2.245e-6
6.620e+0, 2.285e-6
6.640e+0, 2.331e-6
6.660e+0, 2.338e-6
6.680e+0, 2.323e-6
6.700e+0, 2.330e-6
6.720e+0, 2.352e-6
6.740e+0, 2.400e-6
6.760e+0, 2.405e-6
6.780e+0, 2.386e-6
6.800e+0, 2.374e-6
6.820e+0, 2.368e-6
6.840e+0, 2.406e-6
6.860e+0, 2.422e-6
6.880e+0, 2.504e-6
6.900e+0, 2.518e-6
6.920e+0, 2.498e-6
6.940e+0, 2.501e-6
6.960e+0, 2.507e-6
6.980e+0, 2.513e-6
7.000e+0, 2.506e-6
7.020e+0, 2.542e-6
7.040e+0, 2.561e-6
7.060e+0, 2.567e-6
7.080e+0, 2.567e-6
7.100e+0, 2.559e-6
7.120e+0, 2.613e-6
7.140e+0, 2.611e-6
7.160e+0, 2.544e-6
7.180e+0, 2.517e-6
7.200e+0, 2.457e-6
7.220e+0, 2.437e-6
7.240e+0, 2.431e-6
7.260e+0, 2.459e-6
7.280e+0, 2.493e-6
7.300e+0, 2.523e-6
7.320e+0, 2.522e-6
7.340e+0, 2.520e-6
7.360e+0, 2.522e-6
7.380e+0, 2.525e-6
7.400e+0, 2.514e-6
7.420e+0, 2.502e-6
7.440e+0, 2.476e-6
7.460e+0, 2.503e-6
7.480e+0, 2.504e-6
7.500e+0, 2.503e-6
7.520e+0, 2.507e-6
7.540e+0, 2.508e-6
7.560e+0, 2.557e-6
7.580e+0, 2.641e-6
7.600e+0, 2.630e-6
7.620e+0, 2.569e-6
7.640e+0, 2.588e-6
7.660e+0, 2.620e-6
7.680e+0, 2.618e-6
7.700e+0, 2.614e-6
7.720e+0, 2.612e-6
7.740e+0, 2.616e-6
7.760e+0, 2.617e-6
7.780e+0, 2.603e-6
7.800e+0, 2.646e-6
7.820e+0, 2.632e-6
7.840e+0, 2.628e-6
7.860e+0, 2.674e-6
7.880e+0, 2.577e-6
7.900e+0, 2.446e-6
7.920e+0, 2.377e-6
7.940e+0, 2.384e-6
7.960e+0, 2.386e-6
7.980e+0, 2.444e-6
8.000e+0, 2.458e-6
8.020e+0, 2.456e-6
8.040e+0, 2.455e-6
8.060e+0, 2.440e-6
8.080e+0, 2.449e-6
8.100e+0, 2.491e-6
8.120e+0, 2.520e-6
8.140e+0, 2.560e-6
8.160e+0, 2.549e-6
8.180e+0, 2.450e-6
8.200e+0, 2.558e-6
8.220e+0, 2.626e-6
8.240e+0, 2.584e-6
8.260e+0, 2.595e-6
8.280e+0, 2.597e-6
8.300e+0, 2.592e-6
8.320e+0, 2.617e-6
8.340e+0, 2.625e-6
8.360e+0, 2.643e-6
8.380e+0, 2.651e-6
8.400e+0, 2.661e-6
8.420e+0, 2.672e-6
8.440e+0, 2.691e-6
8.460e+0, 2.687e-6
8.480e+0, 2.681e-6
8.500e+0, 2.700e-6
8.520e+0, 2.713e-6
8.540e+0, 2.727e-6
8.560e+0, 2.673e-6
8.580e+0, 2.519e-6
8.600e+0, 2.404e-6
8.620e+0, 2.459e-6
8.640e+0, 2.500e-6
8.660e+0, 2.606e-6
8.680e+0, 2.674e-6
8.700e+0, 2.682e-6
8.720e+0, 2.615e-6
8.740e+0, 2.518e-6
8.760e+0, 2.633e-6
8.780e+0, 2.664e-6
8.800e+0, 2.677e-6
8.820e+0, 2.533e-6
8.840e+0, 2.541e-6
8.860e+0, 2.653e-6
8.880e+0, 2.666e-6
8.900e+0, 2.694e-6
8.920e+0, 2.700e-6
8.940e+0, 2.724e-6
8.960e+0, 2.709e-6
8.980e+0, 2.691e-6
9.000e+0, 2.638e-6
9.020e+0, 2.622e-6
9.040e+0, 2.652e-6
9.060e+0, 2.652e-6
9.080e+0, 2.655e-6
9.100e+0, 2.669e-6
9.120e+0, 2.681e-6
9.140e+0, 2.798e-6
9.160e+0, 2.811e-6
9.180e+0, 2.826e-6
9.200e+0, 2.825e-6
9.220e+0, 2.800e-6
9.240e+0, 2.820e-6
9.260e+0, 2.849e-6
9.280e+0, 2.861e-6
9.300e+0, 2.650e-6
9.320e+0, 2.697e-6
9.340e+0, 2.913e-6
9.360e+0, 2.966e-6
9.380e+0, 2.974e-6
9.400e+0, 2.976e-6
9.420e+0, 2.979e-6
9.440e+0, 2.973e-6
9.460e+0, 2.976e-6
9.480e+0, 2.963e-6
9.500e+0, 2.970e-6
9.520e+0, 2.982e-6
9.540e+0, 2.985e-6
9.560e+0, 2.983e-6
9.580e+0, 2.984e-6
9.600e+0, 2.985e-6
9.620e+0, 2.989e-6
9.640e+0, 2.999e-6
9.660e+0, 3.008e-6
9.680e+0, 3.001e-6
9.700e+0, 2.973e-6
9.720e+0, 2.977e-6
9.740e+0, 3.001e-6
9.760e+0, 3.019e-6
9.780e+0, 3.015e-6
9.800e+0, 3.017e-6
9.820e+0, 3.025e-6
9.840e+0, 3.025e-6
9.860e+0, 3.027e-6
9.880e+0, 3.048e-6
9.900e+0, 3.008e-6
9.920e+0, 2.961e-6
9.940e+0, 2.964e-6
9.960e+0, 2.907e-6
9.980e+0, 2.674e-6
1.000e+1, 2.580e-6
1.002e+1, 2.642e-6
1.004e+1, 2.846e-6
1.006e+1, 2.929e-6
1.008e+1, 2.981e-6
1.010e+1, 2.970e-6
1.012e+1, 2.940e-6
1.014e+1, 2.941e-6
1.016e+1, 2.952e-6
1.018e+1, 2.952e-6
1.020e+1, 2.943e-6
1.022e+1, 2.950e-6
1.024e+1, 2.952e-6
1.026e+1, 2.947e-6
1.028e+1, 2.952e-6
1.030e+1, 2.950e-6
1.032e+1, 2.922e-6
1.034e+1, 2.945e-6
1.036e+1, 2.992e-6
1.038e+1, 3.018e-6
1.040e+1, 3.042e-6
1.042e+1, 3.041e-6
1.044e+1, 3.046e-6
1.046e+1, 3.047e-6
1.048e+1, 3.053e-6
1.050e+1, 3.045e-6
1.052e+1, 3.043e-6
1.054e+1, 3.047e-6
1.056e+1, 3.039e-6
1.058e+1, 3.044e-6
1.060e+1, 3.039e-6
1.062e+1, 3.039e-6
1.064e+1, 3.035e-6
1.066e+1, 3.030e-6
1.068e+1, 2.840e-6
1.070e+1, 2.747e-6
1.072e+1, 2.916e-6
1.074e+1, 3.000e-6
1.076e+1, 3.064e-6
1.078e+1, 3.093e-6
1.080e+1, 3.112e-6
1.082e+1, 3.112e-6
1.084e+1, 3.110e-6
1.086e+1, 3.106e-6
1.088e+1, 3.114e-6
1.090e+1, 3.112e-6
1.092e+1, 3.117e-6
1.094e+1, 3.104e-6
1.096e+1, 3.113e-6
1.098e+1, 3.121e-6
1.100e+1, 3.123e-6
1.102e+1, 3.106e-6
1.104e+1, 3.121e-6
1.106e+1, 3.132e-6
1.108e+1, 3.160e-6
1.110e+1, 3.217e-6
1.112e+1, 3.222e-6
1.114e+1, 3.223e-6
1.116e+1, 3.226e-6
1.118e+1, 3.220e-6
1.120e+1, 3.203e-6
1.122e+1, 3.203e-6
1.124e+1, 3.219e-6
1.126e+1, 3.168e-6
1.128e+1, 3.204e-6
1.130e+1, 3.214e-6
1.132e+1, 3.166e-6
1.134e+1, 3.118e-6
1.136e+1, 2.809e-6
1.138e+1, 2.788e-6
1.140e+1, 2.929e-6
1.142e+1, 3.046e-6
1.144e+1, 3.067e-6
1.146e+1, 3.102e-6
1.148e+1, 3.115e-6
1.150e+1, 3.178e-6
1.152e+1, 3.233e-6
1.154e+1, 3.223e-6
1.156e+1, 3.240e-6
1.158e+1, 3.245e-6
1.160e+1, 3.257e-6
1.162e+1, 3.258e-6
1.164e+1, 3.199e-6
1.166e+1, 3.179e-6
1.168e+1, 3.191e-6
1.170e+1, 3.189e-6
1.172e+1, 3.251e-6
1.174e+1, 3.256e-6
1.176e+1, 3.252e-6
1.178e+1, 3.187e-6
1.180e+1, 3.187e-6
1.182e+1, 3.194e-6
1.184e+1, 3.203e-6
1.186e+1, 3.198e-6
1.188e+1, 3.185e-6
1.190e+1, 3.180e-6
1.192e+1, 3.190e-6
1.194e+1, 3.189e-6
1.196e+1, 3.166e-6
1.198e+1, 3.174e-6
1.200e+1, 3.181e-6
1.202e+1, 3.180e-6
1.204e+1, 3.148e-6
1.206e+1, 2.869e-6
1.208e+1, 2.743e-6
1.210e+1, 2.876e-6
1.212e+1, 2.997e-6
1.214e+1, 2.994e-6
1.216e+1, 3.012e-6
1.218e+1, 3.074e-6
1.220e+1, 3.083e-6
1.222e+1, 3.078e-6
1.224e+1, 3.081e-6
1.226e+1, 3.091e-6
1.228e+1, 3.107e-6
1.230e+1, 3.110e-6
1.232e+1, 3.103e-6
1.234e+1, 3.097e-6
1.236e+1, 3.099e-6
1.238e+1, 3.100e-6
1.240e+1, 3.103e-6
1.242e+1, 3.102e-6
1.244e+1, 3.101e-6
1.246e+1, 3.112e-6
1.248e+1, 3.118e-6
1.250e+1, 3.140e-6
1.252e+1, 3.166e-6
1.254e+1, 3.144e-6
1.256e+1, 3.150e-6
1.258e+1, 3.138e-6
1.260e+1, 3.174e-6
1.262e+1, 3.188e-6
1.264e+1, 3.137e-6
1.266e+1, 3.108e-6
1.268e+1, 3.145e-6
1.270e+1, 3.168e-6
1.272e+1, 3.141e-6
1.274e+1, 3.117e-6
1.276e+1, 2.958e-6
1.278e+1, 2.739e-6
1.280e+1, 2.748e-6
1.282e+1, 2.759e-6
1.284e+1, 2.835e-6
1.286e+1, 2.955e-6
1.288e+1, 3.033e-6
1.290e+1, 3.045e-6
1.292e+1, 3.045e-6
1.294e+1, 3.054e-6
1.296e+1, 3.088e-6
1.298e+1, 3.080e-6
1.300e+1, 3.085e-6
1.302e+1, 3.088e-6
1.304e+1, 3.087e-6
1.306e+1, 3.086e-6
1.308e+1, 3.089e-6
1.310e+1, 3.088e-6
1.312e+1, 3.076e-6
1.314e+1, 3.068e-6
1.316e+1, 3.083e-6
1.318e+1, 3.094e-6
1.320e+1, 3.095e-6
1.322e+1, 3.100e-6
1.324e+1, 3.109e-6
1.326e+1, 3.108e-6
1.328e+1, 3.097e-6
1.330e+1, 3.102e-6
1.332e+1, 3.121e-6
1.334e+1, 3.122e-6
1.336e+1, 3.125e-6
1.338e+1, 3.127e-6
1.340e+1, 3.139e-6
1.342e+1, 3.135e-6
1.344e+1, 3.124e-6
1.346e+1, 2.953e-6
1.348e+1, 2.752e-6
1.350e+1, 2.714e-6
1.352e+1, 2.777e-6
1.354e+1, 2.927e-6
1.356e+1, 3.020e-6
1.358e+1, 3.021e-6
1.360e+1, 3.021e-6
1.362e+1, 3.020e-6
1.364e+1, 3.068e-6
1.366e+1, 3.066e-6
1.368e+1, 3.149e-6
1.370e+1, 3.133e-6
1.372e+1, 3.132e-6
1.374e+1, 3.176e-6
1.376e+1, 3.166e-6
1.378e+1, 3.132e-6
1.380e+1, 3.144e-6
1.382e+1, 3.150e-6
1.384e+1, 3.153e-6
1.386e+1, 3.173e-6
1.388e+1, 3.179e-6
1.390e+1, 3.162e-6
1.392e+1, 3.151e-6
1.394e+1, 3.171e-6
1.396e+1, 3.177e-6
1.398e+1, 3.179e-6
1.400e+1, 3.169e-6
1.402e+1, 3.169e-6
1.404e+1, 3.170e-6
1.406e+1, 3.181e-6
1.408e+1, 3.183e-6
1.410e+1, 3.170e-6
1.412e+1, 3.167e-6
1.414e+1, 3.167e-6
1.416e+1, 3.114e-6
1.418e+1, 2.803e-6
1.420e+1, 2.778e-6
1.422e+1, 2.870e-6
1.424e+1, 2.874e-6
1.426e+1, 2.840e-6
1.428e+1, 2.817e-6
1.430e+1, 2.855e-6
1.432e+1, 2.930e-6
1.434e+1, 3.008e-6
1.436e+1, 3.014e-6
1.438e+1, 3.024e-6
1.440e+1, 3.037e-6
1.442e+1, 3.037e-6
1.444e+1, 3.036e-6
1.446e+1, 3.029e-6
1.448e+1, 3.060e-6
1.450e+1, 3.086e-6
1.452e+1, 3.095e-6
1.454e+1, 3.125e-6
1.456e+1, 3.157e-6
1.458e+1, 3.158e-6
1.460e+1, 3.176e-6
1.462e+1, 3.186e-6
1.464e+1, 3.196e-6
1.466e+1, 3.201e-6
1.468e+1, 3.199e-6
1.470e+1, 3.199e-6
1.472e+1, 3.198e-6
1.474e+1, 3.194e-6
1.476e+1, 3.189e-6
1.478e+1, 3.136e-6
1.480e+1, 2.950e-6
1.482e+1, 2.842e-6
1.484e+1, 2.914e-6
1.486e+1, 2.880e-6
1.488e+1, 2.780e-6
1.490e+1, 2.770e-6
1.492e+1, 2.741e-6
1.494e+1, 2.741e-6
1.496e+1, 2.837e-6
1.498e+1, 2.849e-6
1.500e+1, 2.849e-6
1.502e+1, 2.870e-6
1.504e+1, 2.885e-6
1.506e+1, 2.899e-6
1.508e+1, 2.943e-6
1.510e+1, 2.960e-6
1.512e+1, 2.928e-6
1.514e+1, 2.961e-6
1.516e+1, 2.987e-6
1.518e+1, 2.996e-6
1.520e+1, 2.992e-6
1.522e+1, 2.994e-6
1.524e+1, 3.004e-6
1.526e+1, 3.037e-6
1.528e+1, 3.117e-6
1.530e+1, 3.136e-6
1.532e+1, 3.147e-6
1.534e+1, 3.150e-6
1.536e+1, 3.142e-6
1.538e+1, 3.139e-6
1.540e+1, 3.086e-6
1.542e+1, 3.128e-6
1.544e+1, 3.147e-6
1.546e+1, 3.154e-6
1.548e+1, 3.159e-6
1.550e+1, 3.162e-6
1.552e+1, 3.158e-6
1.554e+1, 3.155e-6
1.556e+1, 3.141e-6
1.558e+1, 2.978e-6
1.560e+1, 2.772e-6
1.562e+1, 2.739e-6
1.564e+1, 2.737e-6
1.566e+1, 2.846e-6
1.568e+1, 2.868e-6
1.570e+1, 2.930e-6
1.572e+1, 2.881e-6
1.574e+1, 2.857e-6
1.576e+1, 2.923e-6
1.578e+1, 3.072e-6
1.580e+1, 3.119e-6
1.582e+1, 3.099e-6
1.584e+1, 3.040e-6
1.586e+1, 3.091e-6
1.588e+1, 3.150e-6
1.590e+1, 3.162e-6
1.592e+1, 3.146e-6
1.594e+1, 3.117e-6
1.596e+1, 3.148e-6
1.598e+1, 3.165e-6
1.600e+1, 3.167e-6
1.602e+1, 3.169e-6
1.604e+1, 3.163e-6
1.606e+1, 3.161e-6
1.608e+1, 3.162e-6
1.610e+1, 3.115e-6
1.612e+1, 3.115e-6
1.614e+1, 3.134e-6
1.616e+1, 3.150e-6
1.618e+1, 3.157e-6
1.620e+1, 3.159e-6
1.622e+1, 3.154e-6
1.624e+1, 3.133e-6
1.626e+1, 3.144e-6
1.628e+1, 3.052e-6
1.630e+1, 2.802e-6
1.632e+1, 2.769e-6
1.634e+1, 2.750e-6
1.636e+1, 2.864e-6
1.638e+1, 2.968e-6
1.640e+1, 2.996e-6
1.642e+1, 2.990e-6
1.644e+1, 2.994e-6
1.646e+1, 3.017e-6
1.648e+1, 2.986e-6
1.650e+1, 2.995e-6
1.652e+1, 3.006e-6
1.654e+1, 3.058e-6
1.656e+1, 3.120e-6
1.658e+1, 3.126e-6
1.660e+1, 3.148e-6
1.662e+1, 3.161e-6
1.664e+1, 3.187e-6
1.666e+1, 3.244e-6
1.668e+1, 3.244e-6
1.670e+1, 3.243e-6
1.672e+1, 3.236e-6
1.674e+1, 3.227e-6
1.676e+1, 3.228e-6
1.678e+1, 3.230e-6
1.680e+1, 3.230e-6
1.682e+1, 3.259e-6
1.684e+1, 3.259e-6
1.686e+1, 3.251e-6
1.688e+1, 3.264e-6
1.690e+1, 3.258e-6
1.692e+1, 3.228e-6
1.694e+1, 3.238e-6
1.696e+1, 3.236e-6
1.698e+1, 3.208e-6
1.700e+1, 3.195e-6
1.702e+1, 3.163e-6
1.704e+1, 3.165e-6
1.706e+1, 3.186e-6
1.708e+1, 3.199e-6
1.710e+1, 3.235e-6
1.712e+1, 3.266e-6
1.714e+1, 3.265e-6
1.716e+1, 3.261e-6
1.718e+1, 3.252e-6
1.720e+1, 3.235e-6
1.722e+1, 3.234e-6
1.724e+1, 3.187e-6
1.726e+1, 3.172e-6
1.728e+1, 3.168e-6
1.730e+1, 3.197e-6
1.732e+1, 3.254e-6
1.734e+1, 3.244e-6
1.736e+1, 3.250e-6
1.738e+1, 3.247e-6
1.740e+1, 3.241e-6
1.742e+1, 3.209e-6
1.744e+1, 3.207e-6
1.746e+1, 3.203e-6
1.748e+1, 3.203e-6
1.750e+1, 3.211e-6
1.752e+1, 3.215e-6
1.754e+1, 3.214e-6
1.756e+1, 3.212e-6
1.758e+1, 3.203e-6
1.760e+1, 3.207e-6
1.762e+1, 3.208e-6
1.764e+1, 3.205e-6
1.766e+1, 3.208e-6
1.768e+1, 3.156e-6
1.770e+1, 3.148e-6
1.772e+1, 3.145e-6
1.774e+1, 3.173e-6
1.776e+1, 3.236e-6
1.778e+1, 3.271e-6
1.780e+1, 3.260e-6
1.782e+1, 3.271e-6
1.784e+1, 3.264e-6
1.786e+1, 3.273e-6
1.788e+1, 3.274e-6
1.790e+1, 3.274e-6
1.792e+1, 3.203e-6
1.794e+1, 3.200e-6
1.796e+1, 3.194e-6
1.798e+1, 3.200e-6
1.800e+1, 3.202e-6
1.802e+1, 3.208e-6
1.804e+1, 3.206e-6
1.806e+1, 3.209e-6
1.808e+1, 3.219e-6
1.810e+1, 3.265e-6
1.812e+1, 3.216e-6
1.814e+1, 3.265e-6
1.816e+1, 3.288e-6
1.818e+1, 3.299e-6
1.820e+1, 3.301e-6
1.822e+1, 3.301e-6
1.824e+1, 3.305e-6
1.826e+1, 3.299e-6
1.828e+1, 3.296e-6
1.830e+1, 3.287e-6
1.832e+1, 3.261e-6
1.834e+1, 3.163e-6
1.836e+1, 2.971e-6
1.838e+1, 3.021e-6
1.840e+1, 3.095e-6
1.842e+1, 3.113e-6
1.844e+1, 3.157e-6
1.846e+1, 3.225e-6
1.848e+1, 3.243e-6
1.850e+1, 3.189e-6
1.852e+1, 3.186e-6
1.854e+1, 3.231e-6
1.856e+1, 3.253e-6
1.858e+1, 3.214e-6
1.860e+1, 3.207e-6
1.862e+1, 3.209e-6
1.864e+1, 3.264e-6
1.866e+1, 3.308e-6
1.868e+1, 3.315e-6
1.870e+1, 3.309e-6
1.872e+1, 3.310e-6
1.874e+1, 3.319e-6
1.876e+1, 3.326e-6
1.878e+1, 3.320e-6
1.880e+1, 3.316e-6
1.882e+1, 3.320e-6
1.884e+1, 3.321e-6
1.886e+1, 3.276e-6
1.888e+1, 3.235e-6
1.890e+1, 3.219e-6
1.892e+1, 3.208e-6
1.894e+1, 3.208e-6
1.896e+1, 3.212e-6
1.898e+1, 3.237e-6
1.900e+1, 3.001e-6
1.902e+1, 2.686e-6
1.904e+1, 2.686e-6
1.906e+1, 2.831e-6
1.908e+1, 2.877e-6
1.910e+1, 2.928e-6
1.912e+1, 2.966e-6
1.914e+1, 2.972e-6
1.916e+1, 3.018e-6
1.918e+1, 3.050e-6
1.920e+1, 3.066e-6
1.922e+1, 3.105e-6
1.924e+1, 3.169e-6
1.926e+1, 3.144e-6
1.928e+1, 3.084e-6
1.930e+1, 3.086e-6
1.932e+1, 3.155e-6
1.934e+1, 3.175e-6
1.936e+1, 3.174e-6
1.938e+1, 3.150e-6
1.940e+1, 3.174e-6
1.942e+1, 3.180e-6
1.944e+1, 3.172e-6
1.946e+1, 3.165e-6
1.948e+1, 3.173e-6
1.950e+1, 3.179e-6
1.952e+1, 3.150e-6
1.954e+1, 3.099e-6
1.956e+1, 3.100e-6
1.958e+1, 3.110e-6
1.960e+1, 3.077e-6
1.962e+1, 3.065e-6
1.964e+1, 3.046e-6
1.966e+1, 2.948e-6
1.968e+1, 2.748e-6
1.970e+1, 2.698e-6
1.972e+1, 2.646e-6
1.974e+1, 2.676e-6
1.976e+1, 2.729e-6
1.978e+1, 2.708e-6
1.980e+1, 2.696e-6
1.982e+1, 2.665e-6
1.984e+1, 2.672e-6
1.986e+1, 2.654e-6
1.988e+1, 2.647e-6
1.990e+1, 2.650e-6
1.992e+1, 2.646e-6
1.994e+1, 2.632e-6
1.996e+1, 2.636e-6
1.998e+1, 2.649e-6
2.000e+1, 2.647e-6
2.002e+1, 2.650e-6
2.004e+1, 2.646e-6
2.006e+1, 2.644e-6
2.008e+1, 2.644e-6
2.010e+1, 2.642e-6
2.012e+1, 2.640e-6
2.014e+1, 2.647e-6
2.016e+1, 2.638e-6
2.018e+1, 2.633e-6
2.020e+1, 2.634e-6
2.022e+1, 2.643e-6
2.024e+1, 2.646e-6
2.026e+1, 2.638e-6
2.028e+1, 2.617e-6
2.030e+1, 2.626e-6
2.032e+1, 2.637e-6
2.034e+1, 2.633e-6
2.036e+1, 2.579e-6
2.038e+1, 2.365e-6
2.040e+1, 2.335e-6
2.042e+1, 2.419e-6
2.044e+1, 2.425e-6
2.046e+1, 2.474e-6
2.048e+1, 2.489e-6
2.050e+1, 2.485e-6
2.052e+1, 2.486e-6
2.054e+1, 2.486e-6
2.056e+1, 2.487e-6
2.058e+1, 2.478e-6
2.060e+1, 2.482e-6
2.062e+1, 2.489e-6
2.064e+1, 2.498e-6
2.066e+1, 2.491e-6
2.068e+1, 2.497e-6
2.070e+1, 2.494e-6
2.072e+1, 2.499e-6
2.074e+1, 2.502e-6
2.076e+1, 2.492e-6
2.078e+1, 2.489e-6
2.080e+1, 2.489e-6
2.082e+1, 2.485e-6
2.084e+1, 2.485e-6
2.086e+1, 2.487e-6
2.088e+1, 2.488e-6
2.090e+1, 2.490e-6
2.092e+1, 2.492e-6
2.094e+1, 2.481e-6
2.096e+1, 2.474e-6
2.098e+1, 2.481e-6
2.100e+1, 2.484e-6
2.102e+1, 2.483e-6
2.104e+1, 2.452e-6
2.106e+1, 2.419e-6
2.108e+1, 2.362e-6
2.110e+1, 2.408e-6
2.112e+1, 2.436e-6
2.114e+1, 2.469e-6
2.116e+1, 2.494e-6
2.118e+1, 2.496e-6
2.120e+1, 2.499e-6
2.122e+1, 2.502e-6
2.124e+1, 2.541e-6
2.126e+1, 2.588e-6
2.128e+1, 2.610e-6
2.130e+1, 2.612e-6
2.132e+1, 2.616e-6
2.134e+1, 2.614e-6
2.136e+1, 2.633e-6
2.138e+1, 2.633e-6
2.140e+1, 2.644e-6
2.142e+1, 2.648e-6
2.144e+1, 2.638e-6
2.146e+1, 2.600e-6
2.148e+1, 2.580e-6
2.150e+1, 2.567e-6
2.152e+1, 2.548e-6
2.154e+1, 2.554e-6
2.156e+1, 2.548e-6
2.158e+1, 2.544e-6
2.160e+1, 2.546e-6
2.162e+1, 2.550e-6
2.164e+1, 2.558e-6
2.166e+1, 2.631e-6
2.168e+1, 2.654e-6
2.170e+1, 2.621e-6
2.172e+1, 2.612e-6
2.174e+1, 2.617e-6
2.176e+1, 2.630e-6
2.178e+1, 2.621e-6
2.180e+1, 2.596e-6
2.182e+1, 2.599e-6
2.184e+1, 2.611e-6
2.186e+1, 2.597e-6
2.188e+1, 2.613e-6
2.190e+1, 2.616e-6
2.192e+1, 2.617e-6
2.194e+1, 2.645e-6
2.196e+1, 2.686e-6
2.198e+1, 2.684e-6
2.200e+1, 2.698e-6
2.202e+1, 2.687e-6
2.204e+1, 2.688e-6
2.206e+1, 2.689e-6
2.208e+1, 2.714e-6
2.210e+1, 2.742e-6
2.212e+1, 2.742e-6
2.214e+1, 2.741e-6
2.216e+1, 2.743e-6
2.218e+1, 2.739e-6
2.220e+1, 2.705e-6
2.222e+1, 2.715e-6
2.224e+1, 2.719e-6
2.226e+1, 2.726e-6
2.228e+1, 2.735e-6
2.230e+1, 2.733e-6
2.232e+1, 2.728e-6
2.234e+1, 2.729e-6
2.236e+1, 2.735e-6
2.238e+1, 2.732e-6
2.240e+1, 2.733e-6
2.242e+1, 2.733e-6
2.244e+1, 2.744e-6
2.246e+1, 2.740e-6
2.248e+1, 2.708e-6
2.250e+1, 2.709e-6
2.252e+1, 2.719e-6
2.254e+1, 2.737e-6
2.256e+1, 2.742e-6
2.258e+1, 2.741e-6
2.260e+1, 2.738e-6
2.262e+1, 2.741e-6
2.264e+1, 2.740e-6
2.266e+1, 2.738e-6
2.268e+1, 2.740e-6
2.270e+1, 2.742e-6
2.272e+1, 2.706e-6
2.274e+1, 2.701e-6
2.276e+1, 2.700e-6
2.278e+1, 2.825e-6
2.280e+1, 2.844e-6
2.282e+1, 2.850e-6
2.284e+1, 2.862e-6
2.286e+1, 2.924e-6
2.288e+1, 2.930e-6
2.290e+1, 2.928e-6
2.292e+1, 2.923e-6
2.294e+1, 2.928e-6
2.296e+1, 2.929e-6
2.298e+1, 2.932e-6
2.300e+1, 2.933e-6
2.302e+1, 2.940e-6
2.304e+1, 2.944e-6
2.306e+1, 2.946e-6
2.308e+1, 2.945e-6
2.310e+1, 2.948e-6
2.312e+1, 2.951e-6
2.314e+1, 2.895e-6
2.316e+1, 2.757e-6
2.318e+1, 2.715e-6
2.320e+1, 2.712e-6
2.322e+1, 2.680e-6
2.324e+1, 2.674e-6
2.326e+1, 2.784e-6
2.328e+1, 2.880e-6
2.330e+1, 2.940e-6
2.332e+1, 2.940e-6
2.334e+1, 2.969e-6
2.336e+1, 2.992e-6
2.338e+1, 2.973e-6
2.340e+1, 2.916e-6
2.342e+1, 2.923e-6
2.344e+1, 2.909e-6
2.346e+1, 2.945e-6
2.348e+1, 2.959e-6
2.350e+1, 2.971e-6
2.352e+1, 2.972e-6
2.354e+1, 2.964e-6
2.356e+1, 2.953e-6
2.358e+1, 2.958e-6
2.360e+1, 2.959e-6
2.362e+1, 2.975e-6
2.364e+1, 2.983e-6
2.366e+1, 2.986e-6
2.368e+1, 2.995e-6
2.370e+1, 3.017e-6
2.372e+1, 3.013e-6
2.374e+1, 3.010e-6
2.376e+1, 3.027e-6
2.378e+1, 3.029e-6
2.380e+1, 3.018e-6
2.382e+1, 3.026e-6
2.384e+1, 2.994e-6
2.386e+1, 2.929e-6
2.388e+1, 2.927e-6
2.390e+1, 2.957e-6
2.392e+1, 3.001e-6
2.394e+1, 3.014e-6
2.396e+1, 3.023e-6
2.398e+1, 3.021e-6
2.400e+1, 3.013e-6
2.402e+1, 3.009e-6
2.404e+1, 3.003e-6
2.406e+1, 3.049e-6
2.408e+1, 3.076e-6
2.410e+1, 3.070e-6
2.412e+1, 3.067e-6
2.414e+1, 3.069e-6
2.416e+1, 3.080e-6
2.418e+1, 3.069e-6
2.420e+1, 3.087e-6
2.422e+1, 3.105e-6
2.424e+1, 3.121e-6
2.426e+1, 3.128e-6
2.428e+1, 3.134e-6
2.430e+1, 3.124e-6
2.432e+1, 3.136e-6
2.434e+1, 3.143e-6
2.436e+1, 3.135e-6
2.438e+1, 3.132e-6
2.440e+1, 3.131e-6
2.442e+1, 3.129e-6
2.444e+1, 3.132e-6
2.446e+1, 3.111e-6
2.448e+1, 3.105e-6
2.450e+1, 3.100e-6
2.452e+1, 3.029e-6
2.454e+1, 2.847e-6
2.456e+1, 2.860e-6
2.458e+1, 2.977e-6
2.460e+1, 2.997e-6
2.462e+1, 3.021e-6
2.464e+1, 3.030e-6
2.466e+1, 3.039e-6
2.468e+1, 3.039e-6
2.470e+1, 3.044e-6
2.472e+1, 3.048e-6
2.474e+1, 3.075e-6
2.476e+1, 3.082e-6
2.478e+1, 3.091e-6
2.480e+1, 3.093e-6
2.482e+1, 3.085e-6
2.484e+1, 3.091e-6
2.486e+1, 3.091e-6
2.488e+1, 3.090e-6
2.490e+1, 3.092e-6
2.492e+1, 3.097e-6
2.494e+1, 3.089e-6
2.496e+1, 3.073e-6
2.498e+1, 3.072e-6
2.500e+1, 3.081e-6
2.502e+1, 3.078e-6
2.504e+1, 3.072e-6
2.506e+1, 3.082e-6
2.508e+1, 3.086e-6
2.510e+1, 3.087e-6
2.512e+1, 3.086e-6
2.514e+1, 3.086e-6
2.516e+1, 3.084e-6
2.518e+1, 3.082e-6
2.520e+1, 3.003e-6
2.522e+1, 2.935e-6
2.524e+1, 2.956e-6
2.526e+1, 3.004e-6
2.528e+1, 3.029e-6
2.530e+1, 3.044e-6
2.532e+1, 3.047e-6
2.534e+1, 3.059e-6
2.536e+1, 3.072e-6
2.538e+1, 3.071e-6
2.540e+1, 3.061e-6
2.542e+1, 3.048e-6
2.544e+1, 3.053e-6
2.546e+1, 3.050e-6
2.548e+1, 3.047e-6
2.550e+1, 3.054e-6
2.552e+1, 3.051e-6
2.554e+1, 3.046e-6
2.556e+1, 3.026e-6
2.558e+1, 3.024e-6
2.560e+1, 3.017e-6
2.562e+1, 3.023e-6
2.564e+1, 3.023e-6
2.566e+1, 3.026e-6
2.568e+1, 3.037e-6
2.570e+1, 3.046e-6
2.572e+1, 3.052e-6
2.574e+1, 3.055e-6
2.576e+1, 3.049e-6
2.578e+1, 3.052e-6
2.580e+1, 3.058e-6
2.582e+1, 3.065e-6
2.584e+1, 3.065e-6
2.586e+1, 3.076e-6
2.588e+1, 3.079e-6
2.590e+1, 3.031e-6
2.592e+1, 2.991e-6
2.594e+1, 3.020e-6
2.596e+1, 3.032e-6
2.598e+1, 3.070e-6
2.600e+1, 3.107e-6
2.602e+1, 3.116e-6
2.604e+1, 3.136e-6
2.606e+1, 3.149e-6
2.608e+1, 3.149e-6
2.610e+1, 3.147e-6
2.612e+1, 3.145e-6
2.614e+1, 3.159e-6
2.616e+1, 3.164e-6
2.618e+1, 3.155e-6
2.620e+1, 3.123e-6
2.622e+1, 3.120e-6
2.624e+1, 3.151e-6
2.626e+1, 3.169e-6
2.628e+1, 3.150e-6
2.630e+1, 3.094e-6
2.632e+1, 3.098e-6
2.634e+1, 3.113e-6
2.636e+1, 3.129e-6
2.638e+1, 3.138e-6
2.640e+1, 3.141e-6
2.642e+1, 3.150e-6
2.644e+1, 3.153e-6
2.646e+1, 3.142e-6
2.648e+1, 3.137e-6
2.650e+1, 3.139e-6
2.652e+1, 3.126e-6
2.654e+1, 3.119e-6
2.656e+1, 3.092e-6
2.658e+1, 3.031e-6
2.660e+1, 2.889e-6
2.662e+1, 2.949e-6
2.664e+1, 3.059e-6
2.666e+1, 3.096e-6
2.668e+1, 3.106e-6
2.670e+1, 3.116e-6
2.672e+1, 3.125e-6
2.674e+1, 3.138e-6
2.676e+1, 3.162e-6
2.678e+1, 3.176e-6
2.680e+1, 3.189e-6
2.682e+1, 3.192e-6
2.684e+1, 3.197e-6
2.686e+1, 3.194e-6
2.688e+1, 3.193e-6
2.690e+1, 3.192e-6
2.692e+1, 3.196e-6
2.694e+1, 3.196e-6
2.696e+1, 3.195e-6
2.698e+1, 3.192e-6
2.700e+1, 3.183e-6
2.702e+1, 3.190e-6
2.704e+1, 3.192e-6
2.706e+1, 3.194e-6
2.708e+1, 3.194e-6
2.710e+1, 3.193e-6
2.712e+1, 3.191e-6
2.714e+1, 3.197e-6
2.716e+1, 3.198e-6
2.718e+1, 3.191e-6
2.720e+1, 3.186e-6
2.722e+1, 3.179e-6
2.724e+1, 3.118e-6
2.726e+1, 3.067e-6
2.728e+1, 2.829e-6
2.730e+1, 2.793e-6
2.732e+1, 2.943e-6
2.734e+1, 3.059e-6
2.736e+1, 3.098e-6
2.738e+1, 3.106e-6
2.740e+1, 3.108e-6
2.742e+1, 3.111e-6
2.744e+1, 3.133e-6
2.746e+1, 3.161e-6
2.748e+1, 3.172e-6
2.750e+1, 3.191e-6
2.752e+1, 3.196e-6
2.754e+1, 3.193e-6
2.756e+1, 3.187e-6
2.758e+1, 3.189e-6
2.760e+1, 3.193e-6
2.762e+1, 3.194e-6
2.764e+1, 3.198e-6
2.766e+1, 3.198e-6
2.768e+1, 3.184e-6
2.770e+1, 3.183e-6
2.772e+1, 3.185e-6
2.774e+1, 3.186e-6
2.776e+1, 3.196e-6
2.778e+1, 3.199e-6
2.780e+1, 3.200e-6
2.782e+1, 3.189e-6
2.784e+1, 3.189e-6
2.786e+1, 3.185e-6
2.788e+1, 3.184e-6
2.790e+1, 3.184e-6
2.792e+1, 3.151e-6
2.794e+1, 3.090e-6
2.796e+1, 2.852e-6
2.798e+1, 2.823e-6
2.800e+1, 2.882e-6
2.802e+1, 2.967e-6
2.804e+1, 3.027e-6
2.806e+1, 3.074e-6
2.808e+1, 3.086e-6
2.810e+1, 3.108e-6
2.812e+1, 3.127e-6
2.814e+1, 3.135e-6
2.816e+1, 3.154e-6
2.818e+1, 3.189e-6
2.820e+1, 3.181e-6
2.822e+1, 3.180e-6
2.824e+1, 3.209e-6
2.826e+1, 3.210e-6
2.828e+1, 3.195e-6
2.830e+1, 3.191e-6
2.832e+1, 3.183e-6
2.834e+1, 3.181e-6
2.836e+1, 3.187e-6
2.838e+1, 3.186e-6
2.840e+1, 3.182e-6
2.842e+1, 3.183e-6
2.844e+1, 3.188e-6
2.846e+1, 3.192e-6
2.848e+1, 3.192e-6
2.850e+1, 3.192e-6
2.852e+1, 3.192e-6
2.854e+1, 3.184e-6
2.856e+1, 3.173e-6
2.858e+1, 3.161e-6
2.860e+1, 3.158e-6
2.862e+1, 3.047e-6
2.864e+1, 2.838e-6
2.866e+1, 2.728e-6
2.868e+1, 2.718e-6
2.870e+1, 2.801e-6
2.872e+1, 2.876e-6
2.874e+1, 2.967e-6
2.876e+1, 3.025e-6
2.878e+1, 3.054e-6
2.880e+1, 3.061e-6
2.882e+1, 3.070e-6
2.884e+1, 3.106e-6
2.886e+1, 3.165e-6
2.888e+1, 3.183e-6
2.890e+1, 3.140e-6
2.892e+1, 3.122e-6
2.894e+1, 3.133e-6
2.896e+1, 3.139e-6
2.898e+1, 3.144e-6
2.900e+1, 3.144e-6
2.902e+1, 3.153e-6
2.904e+1, 3.143e-6
2.906e+1, 3.120e-6
2.908e+1, 3.128e-6
2.910e+1, 3.137e-6
2.912e+1, 3.157e-6
2.914e+1, 3.140e-6
2.916e+1, 3.128e-6
2.918e+1, 3.143e-6
2.920e+1, 3.152e-6
2.922e+1, 3.144e-6
2.924e+1, 3.125e-6
2.926e+1, 3.126e-6
2.928e+1, 3.115e-6
2.930e+1, 3.110e-6
2.932e+1, 3.070e-6
2.934e+1, 2.903e-6
2.936e+1, 2.874e-6
2.938e+1, 2.900e-6
2.940e+1, 2.994e-6
2.942e+1, 3.030e-6
2.944e+1, 3.095e-6
2.946e+1, 3.127e-6
2.948e+1, 3.107e-6
2.950e+1, 3.093e-6
2.952e+1, 3.092e-6
2.954e+1, 3.085e-6
2.956e+1, 3.102e-6
2.958e+1, 3.097e-6
2.960e+1, 3.066e-6
2.962e+1, 3.117e-6
2.964e+1, 3.101e-6
2.966e+1, 3.124e-6
2.968e+1, 3.137e-6
2.970e+1, 3.145e-6
2.972e+1, 3.142e-6
2.974e+1, 3.141e-6
2.976e+1, 3.137e-6
2.978e+1, 3.133e-6
2.980e+1, 3.131e-6
2.982e+1, 3.134e-6
2.984e+1, 3.137e-6
2.986e+1, 3.140e-6
2.988e+1, 3.117e-6
2.990e+1, 3.094e-6
2.992e+1, 3.097e-6
2.994e+1, 3.089e-6
2.996e+1, 3.093e-6
2.998e+1, 3.014e-6
3.000e+1, 2.957e-6
3.002e+1, 2.869e-6
3.004e+1, 2.849e-6
3.006e+1, 2.860e-6
3.008e+1, 2.922e-6
3.010e+1, 2.967e-6
3.012e+1, 3.010e-6
3.014e+1, 3.041e-6
3.016e+1, 3.049e-6
3.018e+1, 3.060e-6
3.020e+1, 3.061e-6
3.022e+1, 3.074e-6
3.024e+1, 3.132e-6
3.026e+1, 3.105e-6
3.028e+1, 3.091e-6
3.030e+1, 3.100e-6
3.032e+1, 3.110e-6
3.034e+1, 3.117e-6
3.036e+1, 3.150e-6
3.038e+1, 3.159e-6
3.040e+1, 3.160e-6
3.042e+1, 3.152e-6
3.044e+1, 3.147e-6
3.046e+1, 3.143e-6
3.048e+1, 3.155e-6
3.050e+1, 3.154e-6
3.052e+1, 3.162e-6
3.054e+1, 3.169e-6
3.056e+1, 3.171e-6
3.058e+1, 3.183e-6
3.060e+1, 3.154e-6
3.062e+1, 3.124e-6
3.064e+1, 3.145e-6
3.066e+1, 3.152e-6
3.068e+1, 3.120e-6
3.070e+1, 2.962e-6
3.072e+1, 2.913e-6
3.074e+1, 2.961e-6
3.076e+1, 3.042e-6
3.078e+1, 3.085e-6
3.080e+1, 3.099e-6
3.082e+1, 3.073e-6
3.084e+1, 3.077e-6
3.086e+1, 3.106e-6
3.088e+1, 3.144e-6
3.090e+1, 3.162e-6
3.092e+1, 3.160e-6
3.094e+1, 3.160e-6
3.096e+1, 3.162e-6
3.098e+1, 3.165e-6
3.100e+1, 3.166e-6
3.102e+1, 3.176e-6
3.104e+1, 3.146e-6
3.106e+1, 3.204e-6
3.108e+1, 3.205e-6
3.110e+1, 3.172e-6
3.112e+1, 3.242e-6
3.114e+1, 3.234e-6
3.116e+1, 3.249e-6
3.118e+1, 3.244e-6
3.120e+1, 3.231e-6
3.122e+1, 3.220e-6
3.124e+1, 3.252e-6
3.126e+1, 3.286e-6
3.128e+1, 3.297e-6
3.130e+1, 3.295e-6
3.132e+1, 3.270e-6
3.134e+1, 3.273e-6
3.136e+1, 3.284e-6
3.138e+1, 3.280e-6
3.140e+1, 3.292e-6
3.142e+1, 3.286e-6
3.144e+1, 3.314e-6
3.146e+1, 3.329e-6
3.148e+1, 3.307e-6
3.150e+1, 3.302e-6
3.152e+1, 3.298e-6
3.154e+1, 3.263e-6
3.156e+1, 3.265e-6
3.158e+1, 3.275e-6
3.160e+1, 3.271e-6
3.162e+1, 3.281e-6
3.164e+1, 3.301e-6
3.166e+1, 3.336e-6
3.168e+1, 3.345e-6
3.170e+1, 3.324e-6
3.172e+1, 3.283e-6
3.174e+1, 3.286e-6
3.176e+1, 3.279e-6
3.178e+1, 3.271e-6
3.180e+1, 3.293e-6
3.182e+1, 3.284e-6
3.184e+1, 3.284e-6
3.186e+1, 3.277e-6
3.188e+1, 3.281e-6
3.190e+1, 3.283e-6
3.192e+1, 3.269e-6
3.194e+1, 3.268e-6
3.196e+1, 3.266e-6
3.198e+1, 3.253e-6
3.200e+1, 3.185e-6
3.202e+1, 3.170e-6
3.204e+1, 3.185e-6
3.206e+1, 3.189e-6
3.208e+1, 3.200e-6
3.210e+1, 3.230e-6
3.212e+1, 3.257e-6
3.214e+1, 3.241e-6
3.216e+1, 3.266e-6
3.218e+1, 3.268e-6
3.220e+1, 3.272e-6
3.222e+1, 3.265e-6
3.224e+1, 3.265e-6
3.226e+1, 3.270e-6
3.228e+1, 3.272e-6
3.230e+1, 3.271e-6
3.232e+1, 3.271e-6
3.234e+1, 3.269e-6
3.236e+1, 3.272e-6
3.238e+1, 3.304e-6
3.240e+1, 3.312e-6
3.242e+1, 3.302e-6
3.244e+1, 3.296e-6
3.246e+1, 3.292e-6
3.248e+1, 3.293e-6
3.250e+1, 3.292e-6
3.252e+1, 3.289e-6
3.254e+1, 3.290e-6
3.256e+1, 3.294e-6
3.258e+1, 3.291e-6
3.260e+1, 3.289e-6
3.262e+1, 3.246e-6
3.264e+1, 3.201e-6
3.266e+1, 3.179e-6
3.268e+1, 3.184e-6
3.270e+1, 3.172e-6
3.272e+1, 3.194e-6
3.274e+1, 3.253e-6
3.276e+1, 3.305e-6
3.278e+1, 3.301e-6
3.280e+1, 3.308e-6
3.282e+1, 3.318e-6
3.284e+1, 3.309e-6
3.286e+1, 3.317e-6
3.288e+1, 3.324e-6
3.290e+1, 3.325e-6
3.292e+1, 3.333e-6
3.294e+1, 3.319e-6
3.296e+1, 3.284e-6
3.298e+1, 3.277e-6
3.300e+1, 3.283e-6
3.302e+1, 3.293e-6
3.304e+1, 3.290e-6
3.306e+1, 3.295e-6
3.308e+1, 3.299e-6
3.310e+1, 3.298e-6
3.312e+1, 3.301e-6
3.314e+1, 3.300e-6
3.316e+1, 3.309e-6
3.318e+1, 3.316e-6
3.320e+1, 3.320e-6
3.322e+1, 3.298e-6
3.324e+1, 3.274e-6
3.326e+1, 3.231e-6
3.328e+1, 3.219e-6
3.330e+1, 3.242e-6
3.332e+1, 3.266e-6
3.334e+1, 3.294e-6
3.336e+1, 3.306e-6
3.338e+1, 3.303e-6
3.340e+1, 3.330e-6
3.342e+1, 3.351e-6
3.344e+1, 3.363e-6
3.346e+1, 3.364e-6
3.348e+1, 3.365e-6
3.350e+1, 3.354e-6
3.352e+1, 3.328e-6
3.354e+1, 3.352e-6
3.356e+1, 3.344e-6
3.358e+1, 3.341e-6
3.360e+1, 3.359e-6
3.362e+1, 3.359e-6
3.364e+1, 3.349e-6
3.366e+1, 3.325e-6
3.368e+1, 3.273e-6
3.370e+1, 3.243e-6
3.372e+1, 3.242e-6
3.374e+1, 3.262e-6
3.376e+1, 3.277e-6
3.378e+1, 3.276e-6
3.380e+1, 3.240e-6
3.382e+1, 3.234e-6
3.384e+1, 3.239e-6
3.386e+1, 3.236e-6
3.388e+1, 3.218e-6
3.390e+1, 3.208e-6
3.392e+1, 3.223e-6
3.394e+1, 3.240e-6
3.396e+1, 3.264e-6
3.398e+1, 3.302e-6
3.400e+1, 3.308e-6
3.402e+1, 3.309e-6
3.404e+1, 3.342e-6
3.406e+1, 3.357e-6
3.408e+1, 3.361e-6
3.410e+1, 3.338e-6
3.412e+1, 3.287e-6
3.414e+1, 3.279e-6
3.416e+1, 3.268e-6
3.418e+1, 3.284e-6
3.420e+1, 3.310e-6
3.422e+1, 3.300e-6
3.424e+1, 3.325e-6
3.426e+1, 3.331e-6
3.428e+1, 3.332e-6
3.430e+1, 3.335e-6
3.432e+1, 3.315e-6
3.434e+1, 3.293e-6
3.436e+1, 3.293e-6
3.438e+1, 3.261e-6
3.440e+1, 3.230e-6
3.442e+1, 3.233e-6
3.444e+1, 3.216e-6
3.446e+1, 3.212e-6
3.448e+1, 3.233e-6
3.450e+1, 3.225e-6
3.452e+1, 3.217e-6
3.454e+1, 3.221e-6
3.456e+1, 3.211e-6
3.458e+1, 3.182e-6
3.460e+1, 3.186e-6
3.462e+1, 3.194e-6
3.464e+1, 3.208e-6
3.466e+1, 3.249e-6
3.468e+1, 3.282e-6
3.470e+1, 3.238e-6
3.472e+1, 3.248e-6
3.474e+1, 3.227e-6
3.476e+1, 3.270e-6
3.478e+1, 3.297e-6
3.480e+1, 3.283e-6
3.482e+1, 3.268e-6
3.484e+1, 3.288e-6
3.486e+1, 3.282e-6
3.488e+1, 3.271e-6
3.490e+1, 3.260e-6
3.492e+1, 3.253e-6
3.494e+1, 3.251e-6
3.496e+1, 3.248e-6
3.498e+1, 3.246e-6
3.500e+1, 3.246e-6
3.502e+1, 3.255e-6
3.504e+1, 3.267e-6
3.506e+1, 3.252e-6
3.508e+1, 3.251e-6
3.510e+1, 3.248e-6
3.512e+1, 3.250e-6
3.514e+1, 3.254e-6
3.516e+1, 3.248e-6
3.518e+1, 3.239e-6
3.520e+1, 3.229e-6
3.522e+1, 3.221e-6
3.524e+1, 3.177e-6
3.526e+1, 3.175e-6
3.528e+1, 3.170e-6
3.530e+1, 3.175e-6
3.532e+1, 3.204e-6
3.534e+1, 3.266e-6
3.536e+1, 3.289e-6
3.538e+1, 3.304e-6
3.540e+1, 3.295e-6
3.542e+1, 3.271e-6
3.544e+1, 3.306e-6
3.546e+1, 3.376e-6
3.548e+1, 3.360e-6
3.550e+1, 3.350e-6
3.552e+1, 3.354e-6
3.554e+1, 3.345e-6
3.556e+1, 3.361e-6
3.558e+1, 3.369e-6
3.560e+1, 3.309e-6
3.562e+1, 3.268e-6
3.564e+1, 3.328e-6
3.566e+1, 3.351e-6
3.568e+1, 3.363e-6
3.570e+1, 3.368e-6
3.572e+1, 3.359e-6
3.574e+1, 3.343e-6
3.576e+1, 3.349e-6
3.578e+1, 3.334e-6
3.580e+1, 3.330e-6
3.582e+1, 3.336e-6
3.584e+1, 3.337e-6
3.586e+1, 3.344e-6
3.588e+1, 3.339e-6
3.590e+1, 3.331e-6
3.592e+1, 3.232e-6
3.594e+1, 3.206e-6
3.596e+1, 3.235e-6
3.598e+1, 3.257e-6
3.600e+1, 3.258e-6
3.602e+1, 3.263e-6
3.604e+1, 3.271e-6
3.606e+1, 3.306e-6
3.608e+1, 3.336e-6
3.610e+1, 3.326e-6
3.612e+1, 3.322e-6
3.614e+1, 3.326e-6
3.616e+1, 3.323e-6
3.618e+1, 3.299e-6
3.620e+1, 3.299e-6
3.622e+1, 3.274e-6
3.624e+1, 3.299e-6
3.626e+1, 3.371e-6
3.628e+1, 3.371e-6
3.630e+1, 3.382e-6
3.632e+1, 3.431e-6
3.634e+1, 3.453e-6
3.636e+1, 3.454e-6
3.638e+1, 3.453e-6
3.640e+1, 3.438e-6
3.642e+1, 3.400e-6
3.644e+1, 3.371e-6
3.646e+1, 3.369e-6
3.648e+1, 3.394e-6
3.650e+1, 3.425e-6
3.652e+1, 3.393e-6
3.654e+1, 3.304e-6
3.656e+1, 3.338e-6
3.658e+1, 3.396e-6
3.660e+1, 3.258e-6
3.662e+1, 3.254e-6
3.664e+1, 3.263e-6
3.666e+1, 3.309e-6
3.668e+1, 3.327e-6
3.670e+1, 3.343e-6
3.672e+1, 3.347e-6
3.674e+1, 3.451e-6
3.676e+1, 3.428e-6
3.678e+1, 3.341e-6
3.680e+1, 3.346e-6
3.682e+1, 3.473e-6
3.684e+1, 3.440e-6
3.686e+1, 3.397e-6
3.688e+1, 3.385e-6
3.690e+1, 3.405e-6
3.692e+1, 3.401e-6
3.694e+1, 3.402e-6
3.696e+1, 3.403e-6
3.698e+1, 3.426e-6
3.700e+1, 3.527e-6
3.702e+1, 3.532e-6
3.704e+1, 3.489e-6
3.706e+1, 3.489e-6
3.708e+1, 3.514e-6
3.710e+1, 3.495e-6
3.712e+1, 3.479e-6
3.714e+1, 3.480e-6
3.716e+1, 3.501e-6
3.718e+1, 3.483e-6
3.720e+1, 3.429e-6
3.722e+1, 3.428e-6
3.724e+1, 3.403e-6
3.726e+1, 3.330e-6
3.728e+1, 3.282e-6
3.730e+1, 3.285e-6
3.732e+1, 3.295e-6
3.734e+1, 3.302e-6
3.736e+1, 3.326e-6
3.738e+1, 3.349e-6
3.740e+1, 3.371e-6
3.742e+1, 3.456e-6
3.744e+1, 3.460e-6
3.746e+1, 3.476e-6
3.748e+1, 3.502e-6
3.750e+1, 3.490e-6
3.752e+1, 3.482e-6
3.754e+1, 3.492e-6
3.756e+1, 3.533e-6
3.758e+1, 3.567e-6
3.760e+1, 3.548e-6
3.762e+1, 3.551e-6
3.764e+1, 3.589e-6
3.766e+1, 3.563e-6
3.768e+1, 3.548e-6
3.770e+1, 3.537e-6
3.772e+1, 3.529e-6
3.774e+1, 3.528e-6
3.776e+1, 3.496e-6
3.778e+1, 3.503e-6
3.780e+1, 3.508e-6
3.782e+1, 3.426e-6
3.784e+1, 3.418e-6
3.786e+1, 3.410e-6
3.788e+1, 3.415e-6
3.790e+1, 3.408e-6
3.792e+1, 3.389e-6
3.794e+1, 3.354e-6
3.796e+1, 3.328e-6
3.798e+1, 3.350e-6
3.800e+1, 3.380e-6
3.802e+1, 3.406e-6
3.804e+1, 3.418e-6
3.806e+1, 3.456e-6
3.808e+1, 3.485e-6
3.810e+1, 3.511e-6
3.812e+1, 3.499e-6
3.814e+1, 3.505e-6
3.816e+1, 3.512e-6
3.818e+1, 3.515e-6
3.820e+1, 3.521e-6
3.822e+1, 3.521e-6
3.824e+1, 3.518e-6
3.826e+1, 3.518e-6
3.828e+1, 3.518e-6
3.830e+1, 3.521e-6
3.832e+1, 3.518e-6
3.834e+1, 3.513e-6
3.836e+1, 3.537e-6
3.838e+1, 3.535e-6
3.840e+1, 3.526e-6
3.842e+1, 3.521e-6
3.844e+1, 3.529e-6
3.846e+1, 3.505e-6
3.848e+1, 3.485e-6
3.850e+1, 3.486e-6
3.852e+1, 3.492e-6
3.854e+1, 3.507e-6
3.856e+1, 3.537e-6
3.858e+1, 3.538e-6
3.860e+1, 3.535e-6
3.862e+1, 3.498e-6
3.864e+1, 3.504e-6
3.866e+1, 3.396e-6
3.868e+1, 3.381e-6
3.870e+1, 3.413e-6
3.872e+1, 3.415e-6
3.874e+1, 3.487e-6
3.876e+1, 3.501e-6
3.878e+1, 3.424e-6
3.880e+1, 3.430e-6
3.882e+1, 3.529e-6
3.884e+1, 3.548e-6
3.886e+1, 3.478e-6
3.888e+1, 3.536e-6
3.890e+1, 3.575e-6
3.892e+1, 3.651e-6
3.894e+1, 3.556e-6
3.896e+1, 3.556e-6
3.898e+1, 3.590e-6
3.900e+1, 3.639e-6
3.902e+1, 3.572e-6
3.904e+1, 3.615e-6
3.906e+1, 3.602e-6
3.908e+1, 3.840e-6
3.910e+1, 3.857e-6
3.912e+1, 3.802e-6
3.914e+1, 3.565e-6
3.916e+1, 3.567e-6
3.918e+1, 3.590e-6
3.920e+1, 3.856e-6
3.922e+1, 3.858e-6
3.924e+1, 3.863e-6
3.926e+1, 3.864e-6
3.928e+1, 3.897e-6
3.930e+1, 3.842e-6
3.932e+1, 3.610e-6
3.934e+1, 3.461e-6
3.936e+1, 3.420e-6
3.938e+1, 3.407e-6
3.940e+1, 3.445e-6
3.942e+1, 3.489e-6
3.944e+1, 3.536e-6
3.946e+1, 3.534e-6
3.948e+1, 3.520e-6
3.950e+1, 3.507e-6
3.952e+1, 3.507e-6
3.954e+1, 3.545e-6
3.956e+1, 3.597e-6
3.958e+1, 3.618e-6
3.960e+1, 3.610e-6
3.962e+1, 3.667e-6
3.964e+1, 3.601e-6
3.966e+1, 3.602e-6
3.968e+1, 3.660e-6
3.970e+1, 3.727e-6
3.972e+1, 3.652e-6
3.974e+1, 3.585e-6
3.976e+1, 3.602e-6
3.978e+1, 3.667e-6
3.980e+1, 3.645e-6
3.982e+1, 3.562e-6
3.984e+1, 3.558e-6
3.986e+1, 3.565e-6
3.988e+1, 3.569e-6
3.990e+1, 3.809e-6
3.992e+1, 3.905e-6
3.994e+1, 3.899e-6
3.996e+1, 3.901e-6
3.998e+1, 3.897e-6
4.000e+1, 3.889e-6
4.002e+1, 3.684e-6
4.004e+1, 3.491e-6
4.006e+1, 3.458e-6
4.008e+1, 3.441e-6
4.010e+1, 3.473e-6
4.012e+1, 3.500e-6
4.014e+1, 3.507e-6
4.016e+1, 3.505e-6
4.018e+1, 3.502e-6
4.020e+1, 3.541e-6
4.022e+1, 3.595e-6
4.024e+1, 3.614e-6
4.026e+1, 3.599e-6
4.028e+1, 3.602e-6
4.030e+1, 3.602e-6
4.032e+1, 3.602e-6
4.034e+1, 3.601e-6
4.036e+1, 3.598e-6
4.038e+1, 3.866e-6
4.040e+1, 3.872e-6
4.042e+1, 3.878e-6
4.044e+1, 3.907e-6
4.046e+1, 3.931e-6
4.048e+1, 3.935e-6
4.050e+1, 3.943e-6
4.052e+1, 3.940e-6
4.054e+1, 3.944e-6
4.056e+1, 3.960e-6
4.058e+1, 3.994e-6
4.060e+1, 4.014e-6
4.062e+1, 4.005e-6
4.064e+1, 4.020e-6
4.066e+1, 4.052e-6
4.068e+1, 4.100e-6
4.070e+1, 4.095e-6
4.072e+1, 3.849e-6
4.074e+1, 3.708e-6
4.076e+1, 3.565e-6
4.078e+1, 3.530e-6
4.080e+1, 3.549e-6
4.082e+1, 3.561e-6
4.084e+1, 3.608e-6
4.086e+1, 3.682e-6
4.088e+1, 3.716e-6
4.090e+1, 3.726e-6
4.092e+1, 3.696e-6
4.094e+1, 3.658e-6
4.096e+1, 3.659e-6
4.098e+1, 3.661e-6
4.100e+1, 3.663e-6
4.102e+1, 3.667e-6
4.104e+1, 3.668e-6
4.106e+1, 3.665e-6
4.108e+1, 3.659e-6
4.110e+1, 3.674e-6
4.112e+1, 3.692e-6
4.114e+1, 3.706e-6
4.116e+1, 3.721e-6
4.118e+1, 3.721e-6
4.120e+1, 3.710e-6
4.122e+1, 3.702e-6
4.124e+1, 3.701e-6
4.126e+1, 3.848e-6
4.128e+1, 3.973e-6
4.130e+1, 3.966e-6
4.132e+1, 3.969e-6
4.134e+1, 3.702e-6
4.136e+1, 3.686e-6
4.138e+1, 3.646e-6
4.140e+1, 3.627e-6
4.142e+1, 3.597e-6
4.144e+1, 3.539e-6
4.146e+1, 3.556e-6
4.148e+1, 3.566e-6
4.150e+1, 3.646e-6
4.152e+1, 3.809e-6
4.154e+1, 3.959e-6
4.156e+1, 3.969e-6
4.158e+1, 3.962e-6
4.160e+1, 3.957e-6
4.162e+1, 3.951e-6
4.164e+1, 3.834e-6
4.166e+1, 3.665e-6
4.168e+1, 3.860e-6
4.170e+1, 3.969e-6
4.172e+1, 3.969e-6
4.174e+1, 3.963e-6
4.176e+1, 3.938e-6
4.178e+1, 3.944e-6
4.180e+1, 3.986e-6
4.182e+1, 4.099e-6
4.184e+1, 4.102e-6
4.186e+1, 4.105e-6
4.188e+1, 4.110e-6
4.190e+1, 4.108e-6
4.192e+1, 4.088e-6
4.194e+1, 4.078e-6
4.196e+1, 4.077e-6
4.198e+1, 4.066e-6
4.200e+1, 4.059e-6
4.202e+1, 3.916e-6
4.204e+1, 3.673e-6
4.206e+1, 3.510e-6
4.208e+1, 3.440e-6
4.210e+1, 3.446e-6
4.212e+1, 3.472e-6
4.214e+1, 3.570e-6
4.216e+1, 3.621e-6
4.218e+1, 3.650e-6
4.220e+1, 3.659e-6
4.222e+1, 3.666e-6
4.224e+1, 3.681e-6
4.226e+1, 3.678e-6
4.228e+1, 3.678e-6
4.230e+1, 3.659e-6
4.232e+1, 3.657e-6
4.234e+1, 3.647e-6
4.236e+1, 3.642e-6
4.238e+1, 3.649e-6
4.240e+1, 3.623e-6
4.242e+1, 3.539e-6
4.244e+1, 3.497e-6
4.246e+1, 3.487e-6
4.248e+1, 3.498e-6
4.250e+1, 3.499e-6
4.252e+1, 3.471e-6
4.254e+1, 3.447e-6
4.256e+1, 3.440e-6
4.258e+1, 3.436e-6
4.260e+1, 3.438e-6
4.262e+1, 3.445e-6
4.264e+1, 3.443e-6
4.266e+1, 3.434e-6
4.268e+1, 3.397e-6
4.270e+1, 3.255e-6
4.272e+1, 3.353e-6
4.274e+1, 3.440e-6
4.276e+1, 3.464e-6
4.278e+1, 3.417e-6
4.280e+1, 3.384e-6
4.282e+1, 3.493e-6
4.284e+1, 3.531e-6
4.286e+1, 3.536e-6
4.288e+1, 3.488e-6
4.290e+1, 3.536e-6
4.292e+1, 3.584e-6
4.294e+1, 3.585e-6
4.296e+1, 3.596e-6
4.298e+1, 3.617e-6
4.300e+1, 3.590e-6
4.302e+1, 3.639e-6
4.304e+1, 3.651e-6
4.306e+1, 3.644e-6
4.308e+1, 3.667e-6
4.310e+1, 3.774e-6
4.312e+1, 3.956e-6
4.314e+1, 3.954e-6
4.316e+1, 3.959e-6
4.318e+1, 3.962e-6
4.320e+1, 3.996e-6
4.322e+1, 4.001e-6
4.324e+1, 4.055e-6
4.326e+1, 4.172e-6
4.328e+1, 4.159e-6
4.330e+1, 4.128e-6
4.332e+1, 4.105e-6
4.334e+1, 4.042e-6
4.336e+1, 3.715e-6
4.338e+1, 3.684e-6
4.340e+1, 3.609e-6
4.342e+1, 3.535e-6
4.344e+1, 3.507e-6
4.346e+1, 3.672e-6
4.348e+1, 3.850e-6
4.350e+1, 3.593e-6
4.352e+1, 3.600e-6
4.354e+1, 3.840e-6
4.356e+1, 3.929e-6
4.358e+1, 3.929e-6
4.360e+1, 3.906e-6
4.362e+1, 3.903e-6
4.364e+1, 3.918e-6
4.366e+1, 3.925e-6
4.368e+1, 3.929e-6
4.370e+1, 3.923e-6
4.372e+1, 3.909e-6
4.374e+1, 3.908e-6
4.376e+1, 3.926e-6
4.378e+1, 3.924e-6
4.380e+1, 3.929e-6
4.382e+1, 3.953e-6
4.384e+1, 3.988e-6
4.386e+1, 3.907e-6
4.388e+1, 3.992e-6
4.390e+1, 4.051e-6
4.392e+1, 4.050e-6
4.394e+1, 4.049e-6
4.396e+1, 4.045e-6
4.398e+1, 4.074e-6
4.400e+1, 4.054e-6
4.402e+1, 3.745e-6
4.404e+1, 3.670e-6
4.406e+1, 3.693e-6
4.408e+1, 3.715e-6
4.410e+1, 3.724e-6
4.412e+1, 3.741e-6
4.414e+1, 3.732e-6
4.416e+1, 3.737e-6
4.418e+1, 3.766e-6
4.420e+1, 3.765e-6
4.422e+1, 3.855e-6
4.424e+1, 4.082e-6
4.426e+1, 3.899e-6
4.428e+1, 4.099e-6
4.430e+1, 3.801e-6
4.432e+1, 3.820e-6
4.434e+1, 4.066e-6
4.436e+1, 4.166e-6
4.438e+1, 4.159e-6
4.440e+1, 4.155e-6
4.442e+1, 4.120e-6
4.444e+1, 4.112e-6
4.446e+1, 4.109e-6
4.448e+1, 4.099e-6
4.450e+1, 3.981e-6
4.452e+1, 3.737e-6
4.454e+1, 3.736e-6
4.456e+1, 3.731e-6
4.458e+1, 3.929e-6
4.460e+1, 4.083e-6
4.462e+1, 3.760e-6
4.464e+1, 3.694e-6
4.466e+1, 3.536e-6
4.468e+1, 3.444e-6
4.470e+1, 3.483e-6
4.472e+1, 3.497e-6
4.474e+1, 3.501e-6
4.476e+1, 3.505e-6
4.478e+1, 3.504e-6
4.480e+1, 3.498e-6
4.482e+1, 3.496e-6
4.484e+1, 3.508e-6
4.486e+1, 3.515e-6
4.488e+1, 3.494e-6
4.490e+1, 3.404e-6
4.492e+1, 3.363e-6
4.494e+1, 3.350e-6
4.496e+1, 3.354e-6
4.498e+1, 3.363e-6
4.500e+1, 3.335e-6
4.502e+1, 3.333e-6
4.504e+1, 3.356e-6
4.506e+1, 3.363e-6
4.508e+1, 3.351e-6
4.510e+1, 3.346e-6
4.512e+1, 3.344e-6
4.514e+1, 3.344e-6
4.516e+1, 3.336e-6
4.518e+1, 3.342e-6
4.520e+1, 3.354e-6
4.522e+1, 3.377e-6
4.524e+1, 3.382e-6
4.526e+1, 3.386e-6
4.528e+1, 3.377e-6
4.530e+1, 3.329e-6
4.532e+1, 3.306e-6
4.534e+1, 3.303e-6
4.536e+1, 3.315e-6
4.538e+1, 3.328e-6
4.540e+1, 3.338e-6
4.542e+1, 3.340e-6
4.544e+1, 3.362e-6
4.546e+1, 3.384e-6
4.548e+1, 3.391e-6
4.550e+1, 3.390e-6
4.552e+1, 3.395e-6
